TITLE	
DATA TYPE	
ORIGIN	JASCO
OWNER	
DATE	25/02/21
TIME	09:17:09
SPECTROMETER/DATA SYSTEM	
LOCALE	1033
RESOLUTION	
DELTAX	-1
XUNITS	NANOMETERS
YUNITS	CD [mdeg]
Y2UNITS	HT [V]
Y3UNITS	ABSORBANCE
FIRSTX	  260.0000
LASTX	  190.0000
NPOINTS	      71
FIRSTY	    -0.11449
MAXY	     2.51495
MINY	    -1.82113
XYDATA
260.0000	-0.114488	269.638	0.93537
259.0000	-0.124416	269.914	0.938566
258.0000	-0.168665	270.194	0.941791
257.0000	-0.180853	270.527	0.945633
256.0000	-0.164495	270.798	0.948753
255.0000	-0.167594	271.107	0.952316
254.0000	-0.204127	271.347	0.955079
253.0000	-0.236246	271.581	0.957766
252.0000	-0.334391	271.825	0.960566
251.0000	-0.282699	272.034	0.962968
250.0000	-0.323812	272.215	0.965038
249.0000	-0.317506	272.341	0.966489
248.0000	-0.320069	272.483	0.968122
247.0000	-0.289134	272.614	0.969622
246.0000	-0.277281	272.749	0.971158
245.0000	-0.315327	272.901	0.972903
244.0000	-0.327043	273.034	0.974427
243.0000	-0.384614	273.209	0.976424
242.0000	-0.3889	273.386	0.978445
241.0000	-0.306207	273.638	0.981328
240.0000	-0.374676	273.927	0.984622
239.0000	-0.415365	274.303	0.988914
238.0000	-0.454022	274.657	0.992949
237.0000	-0.468467	275.016	0.997035
236.0000	-0.486009	275.407	1.00148
235.0000	-0.53651	275.801	1.00595
234.0000	-0.62244	276.262	1.01117
233.0000	-0.677518	276.75	1.0167
232.0000	-0.741046	277.133	1.02103
231.0000	-0.767213	277.485	1.025
230.0000	-0.741537	277.844	1.02906
229.0000	-0.762287	278.281	1.03398
228.0000	-0.766216	278.87	1.0406
227.0000	-0.80346	279.53	1.04801
226.0000	-0.838052	280.21	1.05564
225.0000	-0.90706	280.836	1.06264
224.0000	-0.970269	281.507	1.07013
223.0000	-0.991228	282.204	1.07789
222.0000	-0.916224	282.946	1.08615
221.0000	-0.987665	283.746	1.09502
220.0000	-1.05142	284.586	1.10431
219.0000	-1.16383	285.506	1.11447
218.0000	-1.23857	286.488	1.12528
217.0000	-1.28946	287.363	1.13489
216.0000	-1.3492	288.281	1.14494
215.0000	-1.39683	289.15	1.15443
214.0000	-1.41403	289.968	1.16334
213.0000	-1.4406	290.867	1.17311
212.0000	-1.51114	291.759	1.18278
211.0000	-1.54299	292.805	1.19409
210.0000	-1.58833	293.875	1.20562
209.0000	-1.62218	295.057	1.21832
208.0000	-1.75744	296.529	1.23408
207.0000	-1.74619	298.37	1.25368
206.0000	-1.82113	300.84	1.27985
205.0000	-1.64824	304.569	1.319
204.0000	-1.66934	309.69	1.37212
203.0000	-1.65225	317.348	1.4502
202.0000	-1.6037	329.122	1.56724
201.0000	-1.54013	347.564	1.74371
200.0000	-1.45232	378.598	2.0237
199.0000	-1.73722	429.415	2.44308
198.0000	-1.69351	514.532	3.05987
197.0000	-0.82552	667.519	3.97811
196.0000	-0.564384	881.781	4.99974
195.0000	-1.68393	1037.65	5.61607
194.0000	0.254812	1103.87	5.854
193.0000	0.931515	1104.17	5.85506
192.0000	2.51495	1104.31	5.85553
191.0000	1.65753	1104.4	5.85586
190.0000	0.0320763	1104.43	5.85597

##### Extended Information
[Comments]
Sample name
Comment
User
Division
Company	Wake Forest University

[Detailed Information]
Creation date	2/21/2025 10:17 AM

Data array type	Linear data array * 3
Horizontal axis	Wavelength [nm]
Vertical axis(1)	CD [mdeg]
Vertical axis(2)	HT [V]
Vertical axis(3)	Abs
Start	260 nm
End	190 nm
Data interval	1 nm
Data points	71      

[Measurement Information]
Instrument name	J-1500
Model name	J-1500
Serial No.	D067861638

Detector	PM-539
Detector S/N	D067861638
  Lock-in amp.	X mode
  HT volt	Auto

Accessory	PTC-517
Accessory S/N	C036261646
  Temperature	19.99 C
  Control sensor	Holder
  Monitor sensor	Holder
  Start Mode	Keep target temperature +/-0.10 deg C while 5 seconds

Measurement date	2/21/2025 9:55 AM

Parameter file	C:\Users\JascoUSR\Desktop\Albanese\standard_260_200.cdsp
CD Overload detect	62
Photometric mode	CD, HT, Abs
Measure range	260 - 190 nm
Data pitch	1 nm
CD scale	200 mdeg/0.1 dOD
FL scale	200 mdeg/0.1 dOD
D.I.T.	1 sec
Bandwidth	1.00 nm
Start mode	Immediately
Scanning mode	Continuous
Scanning speed	200 nm/min
Baseline correction	None
Shutter control	Manual
Accumulations	8
N2 Flowmeter	Manual


