TITLE	TBAF_Melting_294nm_072524
DATA TYPE	
ORIGIN	JASCO
OWNER	
DATE	25/02/21
TIME	11:55:36
SPECTROMETER/DATA SYSTEM	
LOCALE	1033
XUNITS	Temperature[C]
YUNITS	CD [mdeg]
Y2UNITS	HT [V]
FIRSTX	    5.0000
LASTX	   95.0200
NPOINTS	      91
XYDATA
5.0000	-23.5366	296.946
5.9900	-23.3616	296.972
7.0200	-23.5032	296.981
8.0000	-23.5734	296.961
9.0000	-23.7666	297.019
9.9800	-23.552	297.062
11.0100	-22.8735	296.928
12.0000	-23.4751	297.085
13.0300	-23.175	297.057
13.9900	-23.4129	297.121
15.0100	-23.2066	297.019
16.0000	-23.1815	297.036
17.0000	-23.0225	297.064
18.0000	-23.1495	297.073
18.9800	-22.7345	297.091
19.9600	-22.764	297.114
21.0300	-23.1708	297.193
22.0000	-22.8449	297.086
22.9800	-22.8848	297.113
24.0100	-22.531	297.134
25.0000	-22.7898	297.185
26.0000	-22.6038	297.062
27.0200	-22.5745	297.103
27.9900	-22.2799	297.124
28.9700	-22.6305	297.205
30.0000	-22.1832	297.243
31.0000	-22.356	297.273
32.0200	-22.4157	297.271
33.0100	-22.4936	297.264
34.0000	-22.2669	297.215
35.0000	-22.2855	297.258
35.9800	-22.2402	297.244
37.0000	-21.8302	297.271
38.0100	-22.0793	297.219
39.0000	-21.9194	297.199
40.0000	-21.9708	297.341
41.0000	-21.8284	297.323
42.0200	-21.9208	297.259
43.0100	-22.1764	297.322
44.0200	-21.8862	297.401
44.9800	-21.5808	297.39
46.0100	-21.6294	297.472
47.0100	-21.2882	297.41
47.9900	-21.5021	297.466
49.0200	-21.2287	297.445
50.0000	-21.4845	297.54
51.0300	-21.4969	297.586
52.0100	-20.8905	297.608
52.9900	-21.1847	297.547
54.0100	-21.1843	297.697
55.0100	-21.0498	297.527
55.9900	-21.3693	297.678
57.0200	-21.1795	297.622
57.9900	-21.1899	297.718
59.0000	-20.82	297.837
60.0100	-21.1036	297.783
61.0200	-21.2246	297.851
62.0000	-20.9409	297.84
63.0000	-20.7167	297.863
63.9900	-20.6351	297.91
64.9900	-20.7265	297.954
65.9800	-20.7289	297.935
67.0100	-20.8917	298.013
67.9900	-20.5015	297.968
69.0100	-20.4988	298.053
69.9900	-20.4265	298.126
70.9900	-20.0412	298.011
71.9900	-20.4305	298.083
73.0200	-20.5316	298.065
74.0000	-19.8268	298.213
75.0000	-20.4143	298.194
76.0100	-20.2464	298.249
77.0100	-20.1304	298.33
78.0100	-19.8199	298.312
79.0000	-20.2949	298.37
80.0000	-20.0377	298.365
81.0000	-20.2219	298.479
82.0000	-19.9095	298.693
83.0200	-19.9747	298.714
84.0000	-20.3952	298.892
85.0100	-19.8702	298.867
86.0300	-19.9735	298.894
87.0000	-19.3332	298.945
88.0200	-19.3561	298.878
88.9900	-19.0571	299.031
90.0200	-19.1368	299.082
91.0100	-19.1319	299.192
92.0200	-18.7735	299.176
93.0100	-18.2715	299.264
94.0400	-18.2299	299.312
95.0200	-17.4785	299.487

##### Extended Information
[Comments]
Sample name	TBAF_Melting_294nm_072524
Comment
User
Division
Company	Wake Forest University

[Detailed Information]
Creation date	2/21/2025 11:55 AM

Data array type	Non-linear data array * 2
Horizontal axis	Temperature [C]
Vertical axis(1)	CD [mdeg]
Vertical axis(2)	HT [V]
Start	5 C
End	95.02 C
Data points	91      

[Measurement Information]
Instrument name	J-1500
Model name	J-1500
Serial No.	D067861638

Detector	PM-539
Detector S/N	D067861638
  Lock-in amp.	X mode
  HT volt	Auto

Accessory	PTC-517
Accessory S/N	C036261646
  Control sensor	Holder
  Monitor sensor	Holder
  Start Mode	Keep target temperature +/-0.10 deg C while 5 seconds

Measurement date	2/21/2025 11:54 AM

Parameter file	C:\Users\JascoUSR\Desktop\Albanese\Albanese_melt.cdtv
Photometric mode	CD, HT
CD scale	200 mdeg/0.1 dOD
FL scale	200 mdeg/0.1 dOD
D.I.T.	1 sec
Bandwidth	1.00 nm
Monitor wavelength	222 nm
Baseline correction	None
Shutter control	Manual
No. of cycle	1

Start Temperature	5 C
Stage-1	Target 95 C, Interval 1 C, Ramp rate 1 C/min, Wait 0 sec
Temp. ramp mode	Halt, wait 0 sec before acquiring data

