TITLE	
DATA TYPE	
ORIGIN	JASCO
OWNER	
DATE	25/02/21
TIME	09:16:41
SPECTROMETER/DATA SYSTEM	
LOCALE	1033
RESOLUTION	
DELTAX	-1
XUNITS	NANOMETERS
YUNITS	CD [mdeg]
Y2UNITS	HT [V]
Y3UNITS	ABSORBANCE
FIRSTX	  260.0000
LASTX	  190.0000
NPOINTS	      71
FIRSTY	    -0.12824
MAXY	    11.60450
MINY	   -27.27816
XYDATA
260.0000	-0.128239	270.638	0.946915
259.0000	-0.198567	270.902	0.949954
258.0000	-0.232863	271.216	0.95357
257.0000	-0.272117	271.521	0.957074
256.0000	-0.302081	271.793	0.960196
255.0000	-0.302785	272.069	0.96337
254.0000	-0.304161	272.267	0.965643
253.0000	-0.299671	272.49	0.968193
252.0000	-0.295051	272.72	0.970827
251.0000	-0.412048	272.93	0.973238
250.0000	-0.444367	273.122	0.975435
249.0000	-0.46223	273.271	0.977135
248.0000	-0.540858	273.43	0.978957
247.0000	-0.586504	273.624	0.981164
246.0000	-0.735377	273.828	0.983503
245.0000	-0.916845	274.041	0.985926
244.0000	-1.14816	274.207	0.987816
243.0000	-1.44222	274.429	0.990347
242.0000	-1.79743	274.737	0.993855
241.0000	-2.2435	275.133	0.998364
240.0000	-2.79377	275.628	1.00399
239.0000	-3.5444	276.235	1.01086
238.0000	-4.30564	276.849	1.01782
237.0000	-5.18091	277.542	1.02564
236.0000	-6.286	278.364	1.03491
235.0000	-7.38912	279.24	1.04476
234.0000	-8.73159	280.258	1.05618
233.0000	-10.1135	281.391	1.06884
232.0000	-11.3981	282.409	1.08018
231.0000	-12.9603	283.552	1.09287
230.0000	-14.5636	284.767	1.10631
229.0000	-16.1465	286.109	1.12111
228.0000	-17.5598	287.611	1.13761
227.0000	-18.7882	289.132	1.15423
226.0000	-20.0653	290.725	1.17157
225.0000	-21.0326	292.191	1.18746
224.0000	-21.865	293.749	1.20426
223.0000	-22.3872	295.3	1.22092
222.0000	-22.7171	296.972	1.23881
221.0000	-22.7971	298.734	1.25755
220.0000	-22.7367	300.587	1.27717
219.0000	-22.5944	302.608	1.29846
218.0000	-22.4246	304.723	1.3206
217.0000	-22.4426	306.618	1.34033
216.0000	-22.3614	308.676	1.36166
215.0000	-22.3902	310.808	1.38361
214.0000	-22.4236	313.029	1.40635
213.0000	-22.7556	315.515	1.43166
212.0000	-23.3358	318.057	1.45735
211.0000	-24.3822	321.177	1.48866
210.0000	-25.5164	324.454	1.52126
209.0000	-26.5455	328.274	1.55892
208.0000	-27.2782	332.864	1.6037
207.0000	-27.1264	338.345	1.6565
206.0000	-26.0269	345.02	1.71984
205.0000	-23.8895	353.934	1.80284
204.0000	-20.894	364.908	1.90265
203.0000	-16.8115	379.906	2.03507
202.0000	-11.6234	401.059	2.21454
201.0000	-5.05024	432.001	2.46322
200.0000	2.28292	481.159	2.829
199.0000	8.94996	558.494	3.34496
198.0000	11.6045	682.425	4.05723
197.0000	9.76767	861.92	4.91427
196.0000	3.54204	1019.97	5.55023
195.0000	0.131151	1098.38	5.83474
194.0000	-2.35565	1104.48	5.85613
193.0000	-3.6773	1104.59	5.8565
192.0000	-2.43825	1104.61	5.8566
191.0000	-0.149817	1104.65	5.85673
190.0000	-0.642652	1104.7	5.8569

##### Extended Information
[Comments]
Sample name
Comment
User
Division
Company	Wake Forest University

[Detailed Information]
Creation date	2/21/2025 10:16 AM

Data array type	Linear data array * 3
Horizontal axis	Wavelength [nm]
Vertical axis(1)	CD [mdeg]
Vertical axis(2)	HT [V]
Vertical axis(3)	Abs
Start	260 nm
End	190 nm
Data interval	1 nm
Data points	71      

[Measurement Information]
Instrument name	J-1500
Model name	J-1500
Serial No.	D067861638

Detector	PM-539
Detector S/N	D067861638
  Lock-in amp.	X mode
  HT volt	Auto

Accessory	PTC-517
Accessory S/N	C036261646
  Temperature	20.00 C
  Control sensor	Holder
  Monitor sensor	Holder
  Start Mode	Keep target temperature +/-0.10 deg C while 5 seconds

Measurement date	2/21/2025 10:09 AM

Parameter file	C:\Users\JascoUSR\Desktop\Albanese\standard_260_200.cdsp
CD Overload detect	61
Photometric mode	CD, HT, Abs
Measure range	260 - 190 nm
Data pitch	1 nm
CD scale	200 mdeg/0.1 dOD
FL scale	200 mdeg/0.1 dOD
D.I.T.	1 sec
Bandwidth	1.00 nm
Start mode	Immediately
Scanning mode	Continuous
Scanning speed	200 nm/min
Baseline correction	None
Shutter control	Manual
Accumulations	8
N2 Flowmeter	Manual


